# n + Ac226 : (n,n'01)  
# jeff3.3    O.Iwamoto, T.Nakagawa, et al.     EVAL-FEB10
# uncertainties: y
# # energies =    77
#   E(MeV)       xs(mb)       xslow(mb)      xsupp(mb)
 5.12276E-03    0.00000E+00    0.00000E+00    0.00000E+00
 7.00000E-03    2.10962E+01    8.92369E+00    3.32687E+01
 1.00000E-02    4.30433E+01    1.86808E+01    6.74058E+01
 1.88839E-02    9.71232E+01    4.21515E+01    1.52095E+02
 2.00000E-02    1.02119E+02    4.78938E+01    1.56344E+02
 3.00000E-02    1.45458E+02    7.12744E+01    2.19642E+02
 3.34486E-02    1.57484E+02    7.71672E+01    2.37801E+02
 4.52008E-02    1.92813E+02    9.77562E+01    2.87870E+02
 5.00000E-02    2.05696E+02    1.04288E+02    3.07104E+02
 5.85602E-02    2.22667E+02    1.12892E+02    3.32442E+02
 7.00000E-02    2.40527E+02    1.30606E+02    3.50448E+02
 7.06137E-02    2.41180E+02    1.30961E+02    3.51399E+02
 7.80467E-02    2.48415E+02    1.34889E+02    3.61941E+02
 1.00000E-01    2.68930E+02    1.61627E+02    3.76233E+02
 1.20000E-01    2.66947E+02    1.60435E+02    3.73459E+02
 1.40000E-01    2.69081E+02    1.61718E+02    3.76444E+02
 1.70000E-01    2.79986E+02    1.68272E+02    3.91700E+02
 2.00000E-01    2.74142E+02    1.82853E+02    3.65431E+02
 2.50000E-01    2.70018E+02    1.80102E+02    3.59934E+02
 3.00000E-01    2.34232E+02    1.61386E+02    3.07078E+02
 4.00000E-01    1.80752E+02    1.19296E+02    2.42208E+02
 5.00000E-01    1.53582E+02    1.01364E+02    2.05800E+02
 6.00000E-01    1.19930E+02    7.81944E+01    1.61666E+02
 7.00000E-01    9.76254E+01    6.36518E+01    1.31599E+02
 8.00000E-01    7.66369E+01    4.97373E+01    1.03536E+02
 9.00000E-01    6.11052E+01    3.96573E+01    8.25531E+01
 1.00000E+00    4.92439E+01    3.28949E+01    6.55929E+01
 1.10000E+00    3.91810E+01    2.61729E+01    5.21891E+01
 1.20000E+00    3.11376E+01    2.22011E+01    4.00741E+01
 1.30000E+00    2.46872E+01    1.76020E+01    3.17724E+01
 1.40000E+00    1.96005E+01    1.39752E+01    2.52258E+01
 1.50000E+00    1.55038E+01    1.19224E+01    1.90852E+01
 1.60000E+00    1.22674E+01    9.43363E+00    1.51012E+01
 1.70000E+00    9.66577E+00    7.43298E+00    1.18986E+01
 1.80000E+00    7.61676E+00    5.85729E+00    9.37623E+00
 1.90000E+00    5.97751E+00    4.59670E+00    7.35831E+00
 2.00000E+00    4.69463E+00    3.62425E+00    5.76501E+00
 2.10000E+00    3.67214E+00    2.83489E+00    4.50939E+00
 2.20000E+00    2.87633E+00    2.22053E+00    3.53213E+00
 2.40000E+00    1.76760E+00    1.36459E+00    2.17061E+00
 2.60000E+00    1.09109E+00    7.65945E-01    1.41623E+00
 2.80000E+00    6.76637E-01    4.74999E-01    8.78275E-01
 3.00000E+00    4.25018E-01    2.67761E-01    5.82275E-01
 3.50000E+00    1.40353E-01    8.36504E-02    1.97056E-01
 4.00000E+00    5.29543E-02    3.14019E-02    7.45067E-02
 4.50000E+00    2.38662E-02    1.41527E-02    3.35797E-02
 5.00000E+00    1.37958E-02    9.97436E-03    1.76172E-02
 5.50000E+00    9.85217E-03    7.12312E-03    1.25812E-02
 6.00000E+00    8.25654E-03    6.38231E-03    1.01308E-02
 6.50000E+00    7.48362E-03    5.78484E-03    9.18240E-03
 7.00000E+00    7.09879E-03    5.37378E-03    8.82380E-03
 7.50000E+00    6.83430E-03    5.17356E-03    8.49504E-03
 8.00000E+00    6.65855E-03    4.99391E-03    8.32319E-03
 8.50000E+00    6.46787E-03    4.85090E-03    8.08484E-03
 9.00000E+00    6.29968E-03    4.74996E-03    7.84940E-03
 9.50000E+00    6.09427E-03    4.59508E-03    7.59346E-03
 1.00000E+01    5.87861E-03    4.47950E-03    7.27772E-03
 1.05000E+01    5.90352E-03    4.49848E-03    7.30856E-03
 1.10000E+01    5.90862E-03    4.50237E-03    7.31487E-03
 1.15000E+01    5.91268E-03    4.50546E-03    7.31990E-03
 1.20000E+01    5.91726E-03    4.58588E-03    7.24864E-03
 1.25000E+01    5.92706E-03    4.59347E-03    7.26065E-03
 1.30000E+01    5.92444E-03    4.59144E-03    7.25744E-03
 1.35000E+01    5.92383E-03    4.59097E-03    7.25669E-03
 1.40000E+01    5.92204E-03    4.64288E-03    7.20120E-03
 1.45000E+01    5.91856E-03    4.64015E-03    7.19697E-03
 1.50000E+01    5.91079E-03    4.66361E-03    7.15797E-03
 1.55000E+01    5.90454E-03    4.65868E-03    7.15040E-03
 1.60000E+01    5.89448E-03    4.67432E-03    7.11464E-03
 1.65000E+01    5.88511E-03    4.66689E-03    7.10333E-03
 1.70000E+01    5.87257E-03    4.65695E-03    7.08819E-03
 1.75000E+01    5.86018E-03    4.64712E-03    7.07324E-03
 1.80000E+01    5.84531E-03    4.67625E-03    7.01437E-03
 1.85000E+01    5.83014E-03    4.66411E-03    6.99617E-03
 1.90000E+01    5.81327E-03    4.65062E-03    6.97592E-03
 1.95000E+01    5.79554E-03    4.63643E-03    6.95465E-03
 2.00000E+01    5.77690E-03    4.62152E-03    6.93228E-03
