# n + Ac214 : (n,n'18)  
# tendl.2017 A.J. Koning and D. Rochman        EVAL-NOV17
# uncertainties: n
# # energies =    78
#   E(MeV)       xs(mb) 
 9.54478E-01    0.00000E+00
 9.81879E-01    5.65202E+00
 1.00000E+00    9.38986E+00
 1.00471E+00    1.00483E+01
 1.00572E+00    1.01894E+01
 1.00672E+00    1.03292E+01
 1.00773E+00    1.04704E+01
 1.00873E+00    1.06102E+01
 1.04336E+00    1.54510E+01
 1.05038E+00    1.64323E+01
 1.05181E+00    1.66322E+01
 1.06751E+00    1.88269E+01
 1.07169E+00    1.94112E+01
 1.09891E+00    2.32162E+01
 1.20000E+00    3.73472E+01
 1.40000E+00    3.71305E+01
 1.60000E+00    2.86312E+01
 1.80000E+00    2.13557E+01
 2.00000E+00    1.62248E+01
 2.20000E+00    1.25930E+01
 2.40000E+00    9.80896E+00
 2.60000E+00    7.50528E+00
 2.80000E+00    5.57941E+00
 3.00000E+00    4.03695E+00
 3.20000E+00    2.86653E+00
 3.40000E+00    2.01410E+00
 3.60000E+00    1.40801E+00
 3.80000E+00    9.82615E-01
 4.00000E+00    6.85465E-01
 4.20000E+00    4.78310E-01
 4.40000E+00    3.33790E-01
 4.60000E+00    2.32814E-01
 4.80000E+00    1.62267E-01
 5.00000E+00    1.12960E-01
 5.20000E+00    7.85998E-02
 5.40000E+00    5.45106E-02
 5.60000E+00    3.79130E-02
 5.80000E+00    2.64047E-02
 6.00000E+00    1.84563E-02
 6.20000E+00    1.29671E-02
 6.40000E+00    9.14532E-03
 6.60000E+00    6.49510E-03
 6.80000E+00    4.63835E-03
 7.00000E+00    3.33352E-03
 7.20000E+00    2.41225E-03
 7.40000E+00    1.75510E-03
 7.60000E+00    1.28549E-03
 7.80000E+00    9.45641E-04
 8.00000E+00    6.99101E-04
 8.50000E+00    3.33633E-04
 9.00000E+00    1.61524E-04
 9.50000E+00    7.89061E-05
 1.00000E+01    3.87976E-05
 1.05000E+01    1.92210E-05
 1.10000E+01    9.60520E-06
 1.15000E+01    4.84851E-06
 1.20000E+01    2.47390E-06
 1.25000E+01    1.27623E-06
 1.30000E+01    6.65270E-07
 1.35000E+01    3.50168E-07
 1.40000E+01    1.85831E-07
 1.45000E+01    9.94015E-08
 1.50000E+01    5.35262E-08
 1.60000E+01    1.58328E-08
 1.70000E+01    4.78125E-09
 1.80000E+01    1.49617E-09
 1.90000E+01    4.82236E-10
 2.00000E+01    1.60150E-10
 2.10000E+01    5.45994E-11
 2.20000E+01    1.89971E-11
 2.30000E+01    6.73467E-12
 2.40000E+01    2.43094E-12
 2.50000E+01    8.92272E-13
 2.60000E+01    3.33415E-13
 2.70000E+01    1.26814E-13
 2.80000E+01    4.91240E-14
 2.90000E+01    1.93513E-14
 3.00000E+01    7.74868E-15
