# n + Sn121 : (n,n'11)  
# jeff3.3    A.J. Koning and D. Rochman        EVAL-DEC15
# uncertainties: n
# # energies =    84
#   E(MeV)       xs(mb) 
 1.13055E+00    0.00000E+00
 1.16564E+00    2.39854E+01
 1.20000E+00    4.74718E+01
 1.21203E+00    5.06253E+01
 1.25740E+00    6.25184E+01
 1.34815E+00    8.63073E+01
 1.36126E+00    8.97439E+01
 1.40000E+00    9.98990E+01
 1.41521E+00    1.00265E+02
 1.44395E+00    1.00958E+02
 1.46210E+00    1.01395E+02
 1.51050E+00    1.02561E+02
 1.54982E+00    1.03508E+02
 1.58411E+00    1.04334E+02
 1.60000E+00    1.04717E+02
 1.66699E+00    1.03397E+02
 1.72427E+00    1.02268E+02
 1.77297E+00    1.01309E+02
 1.80000E+00    1.00776E+02
 1.87955E+00    9.83155E+01
 1.89165E+00    9.79413E+01
 1.90930E+00    9.73954E+01
 1.92593E+00    9.68810E+01
 1.92825E+00    9.68092E+01
 2.00000E+00    9.45900E+01
 2.20000E+00    8.28568E+01
 2.40000E+00    7.05238E+01
 2.60000E+00    5.89549E+01
 2.80000E+00    4.85065E+01
 3.00000E+00    3.96296E+01
 3.20000E+00    3.21960E+01
 3.40000E+00    2.60655E+01
 3.60000E+00    2.10640E+01
 3.80000E+00    1.70067E+01
 4.00000E+00    1.37275E+01
 4.20000E+00    1.10711E+01
 4.40000E+00    8.91609E+00
 4.60000E+00    7.16415E+00
 4.80000E+00    5.73620E+00
 5.00000E+00    4.57211E+00
 5.20000E+00    3.62464E+00
 5.40000E+00    2.85547E+00
 5.60000E+00    2.23723E+00
 5.80000E+00    1.74240E+00
 6.00000E+00    1.35006E+00
 6.20000E+00    1.04059E+00
 6.40000E+00    7.99433E-01
 6.60000E+00    6.09059E-01
 6.80000E+00    4.64476E-01
 7.00000E+00    3.54213E-01
 7.20000E+00    2.69756E-01
 7.40000E+00    2.05987E-01
 7.60000E+00    1.57298E-01
 7.80000E+00    1.20349E-01
 8.00000E+00    9.23466E-02
 8.50000E+00    4.81360E-02
 9.00000E+00    2.55524E-02
 9.50000E+00    1.38184E-02
 1.00000E+01    7.60069E-03
 1.05000E+01    4.24398E-03
 1.10000E+01    2.40160E-03
 1.15000E+01    1.37556E-03
 1.20000E+01    7.96680E-04
 1.25000E+01    4.66223E-04
 1.30000E+01    2.75602E-04
 1.35000E+01    1.64456E-04
 1.40000E+01    9.90138E-05
 1.45000E+01    6.01302E-05
 1.50000E+01    3.68196E-05
 1.60000E+01    1.41352E-05
 1.70000E+01    5.58638E-06
 1.80000E+01    2.26569E-06
 1.90000E+01    9.41159E-07
 2.00000E+01    3.97376E-07
 2.10000E+01    1.72514E-07
 2.20000E+01    7.63143E-08
 2.30000E+01    3.43593E-08
 2.40000E+01    1.56850E-08
 2.50000E+01    7.25712E-09
 2.60000E+01    3.40193E-09
 2.70000E+01    1.61661E-09
 2.80000E+01    7.78369E-10
 2.90000E+01    3.79942E-10
 3.00000E+01    1.87954E-10
