# n + Sn118 : (n,xa)    
# jeff3.3    N.Iwamoto,K.Shibata               EVAL-Dec09
# 
# # energies =   111
#   E(MeV)        xs(mb) 
 1.05000E-01    1.42208E-22
 1.10000E-01    1.57156E-22
 1.20000E-01    1.94493E-22
 1.30000E-01    2.40861E-22
 1.40000E-01    2.98548E-22
 1.50000E-01    3.70607E-22
 1.60000E-01    4.59478E-22
 1.70000E-01    5.70015E-22
 1.80000E-01    7.07003E-22
 1.90000E-01    8.76598E-22
 2.00000E-01    1.08635E-21
 2.25000E-01    1.88058E-21
 2.50000E-01    3.23253E-21
 2.75000E-01    5.50596E-21
 3.00000E-01    9.31895E-21
 4.00000E-01    7.32691E-20
 5.00000E-01    5.18502E-19
 6.00000E-01    3.30741E-18
 7.00000E-01    1.91408E-17
 8.00000E-01    1.00886E-16
 9.00000E-01    4.88562E-16
 1.00000E+00    2.18516E-15
 1.10000E+00    9.12955E-15
 1.20000E+00    3.55334E-14
 1.24019E+00    6.02327E-14
 1.30000E+00    9.87649E-14
 1.40000E+00    2.89519E-13
 1.50000E+00    8.49966E-13
 1.60000E+00    2.41395E-12
 1.70000E+00    6.64224E-12
 1.77335E+00    1.36701E-11
 1.80000E+00    1.73227E-11
 1.90000E+00    4.36014E-11
 2.00000E+00    1.07872E-10
 2.06036E+00    1.82809E-10
 2.07451E+00    2.01991E-10
 2.13814E+00    3.27123E-10
 2.25000E+00    7.32473E-10
 2.29985E+00    1.06392E-09
 2.34109E+00    1.37064E-09
 2.34474E+00    1.39969E-09
 2.34794E+00    1.41871E-09
 2.42378E+00    2.14934E-09
 2.42860E+00    2.20067E-09
 2.50000E+00    3.27941E-09
 2.51016E+00    3.48136E-09
 2.51824E+00    3.63483E-09
 2.55164E+00    4.38637E-09
 2.59694E+00    5.69665E-09
 2.59905E+00    5.76710E-09
 2.70026E+00    1.03026E-08
 2.74831E+00    1.35328E-08
 2.75000E+00    1.36464E-08
 2.75718E+00    1.41919E-08
 2.76143E+00    1.45148E-08
 2.79767E+00    1.75906E-08
 2.84110E+00    2.22312E-08
 2.84127E+00    2.22494E-08
 2.90333E+00    3.09874E-08
 2.91372E+00    3.27419E-08
 2.92871E+00    3.54574E-08
 2.95478E+00    4.06413E-08
 2.95910E+00    4.15003E-08
 2.98879E+00    4.80706E-08
 2.99743E+00    5.01572E-08
 3.00000E+00    5.01411E-08
 3.01659E+00    5.44565E-08
 3.02511E+00    5.66727E-08
 3.04101E+00    6.12969E-08
 3.04584E+00    6.27017E-08
 3.07443E+00    7.21961E-08
 3.07827E+00    7.34713E-08
 3.08337E+00    7.52842E-08
 3.08338E+00    7.52878E-08
 3.11564E+00    8.75511E-08
 3.13465E+00    9.56854E-08
 3.16432E+00    1.10631E-07
 3.50000E+00    5.16713E-07
 4.00000E+00    3.71727E-06
 4.50000E+00    1.91882E-05
 5.00000E+00    7.44839E-05
 5.50000E+00    2.28910E-04
 6.00000E+00    5.84560E-04
 6.50000E+00    1.29092E-03
 7.00000E+00    2.54056E-03
 7.50000E+00    4.59697E-03
 8.00000E+00    7.84464E-03
 8.50000E+00    1.29503E-02
 9.00000E+00    2.09916E-02
 9.50000E+00    3.29282E-02
 1.00000E+01    5.28994E-02
 1.05000E+01    8.40852E-02
 1.10000E+01    1.31516E-01
 1.15000E+01    2.01590E-01
 1.20000E+01    3.01614E-01
 1.25000E+01    4.41342E-01
 1.30000E+01    6.31946E-01
 1.35000E+01    8.86235E-01
 1.40000E+01    1.21663E+00
 1.45000E+01    1.63323E+00
 1.50000E+01    2.14428E+00
 1.55000E+01    2.75273E+00
 1.60000E+01    3.46179E+00
 1.65000E+01    4.26726E+00
 1.70000E+01    5.16995E+00
 1.75000E+01    6.15702E+00
 1.80000E+01    7.23741E+00
 1.85000E+01    8.39645E+00
 1.90000E+01    9.63715E+00
 1.95000E+01    1.09497E+01
 2.00000E+01    1.23392E+01
