# n + Ac226 : (n,n'22)  
# tendl.2017 A.J. Koning and D. Rochman        EVAL-NOV17
# uncertainties: n
# # energies =    78
#   E(MeV)       xs(mb) 
 5.98542E-01    0.00000E+00
 5.99547E-01    6.90486E-02
 6.00000E-01    1.00170E-01
 6.00551E-01    1.23507E-01
 6.01556E-01    1.66072E-01
 6.02560E-01    2.08595E-01
 6.03565E-01    2.51161E-01
 6.04569E-01    2.93687E-01
 6.05573E-01    3.36209E-01
 6.06577E-01    3.78733E-01
 7.00000E-01    4.33560E+00
 8.00000E-01    7.44706E+00
 9.00000E-01    8.63322E+00
 1.00000E+00    8.54949E+00
 1.20000E+00    6.93908E+00
 1.40000E+00    5.10112E+00
 1.60000E+00    3.66311E+00
 1.80000E+00    2.68213E+00
 2.00000E+00    2.01005E+00
 2.20000E+00    1.49572E+00
 2.40000E+00    1.07727E+00
 2.60000E+00    7.45688E-01
 2.80000E+00    4.98751E-01
 3.00000E+00    3.25094E-01
 3.20000E+00    2.08317E-01
 3.40000E+00    1.32229E-01
 3.60000E+00    8.36021E-02
 3.80000E+00    5.28602E-02
 4.00000E+00    3.35046E-02
 4.20000E+00    2.13283E-02
 4.40000E+00    1.36434E-02
 4.60000E+00    8.77294E-03
 4.80000E+00    5.67357E-03
 5.00000E+00    3.69301E-03
 5.20000E+00    2.42119E-03
 5.40000E+00    1.58956E-03
 5.60000E+00    1.05596E-03
 5.80000E+00    7.07704E-04
 6.00000E+00    4.78608E-04
 6.20000E+00    3.26614E-04
 6.40000E+00    2.24676E-04
 6.60000E+00    1.56075E-04
 6.80000E+00    1.09286E-04
 7.00000E+00    7.71978E-05
 7.20000E+00    5.50020E-05
 7.40000E+00    3.94524E-05
 7.60000E+00    2.85450E-05
 7.80000E+00    2.07676E-05
 8.00000E+00    1.51997E-05
 8.50000E+00    7.11221E-06
 9.00000E+00    3.41033E-06
 9.50000E+00    1.67005E-06
 1.00000E+01    8.33976E-07
 1.05000E+01    4.24584E-07
 1.10000E+01    2.20339E-07
 1.15000E+01    1.16590E-07
 1.20000E+01    6.28758E-08
 1.25000E+01    3.45457E-08
 1.30000E+01    1.93139E-08
 1.35000E+01    1.09776E-08
 1.40000E+01    6.33434E-09
 1.45000E+01    3.70836E-09
 1.50000E+01    2.20078E-09
 1.60000E+01    8.06327E-10
 1.70000E+01    3.09202E-10
 1.80000E+01    1.25027E-10
 1.90000E+01    5.29026E-11
 2.00000E+01    2.33177E-11
 2.10000E+01    1.06721E-11
 2.20000E+01    5.05586E-12
 2.30000E+01    2.47209E-12
 2.40000E+01    1.24759E-12
 2.50000E+01    6.49256E-13
 2.60000E+01    3.46563E-13
 2.70000E+01    1.89924E-13
 2.80000E+01    1.06707E-13
 2.90000E+01    6.13741E-14
 3.00000E+01    3.60184E-14
