# n + Ac230 : (n,n'15)  
# tendl.2017 A.J. Koning and D. Rochman        EVAL-NOV17
# uncertainties: n
# # energies =    85
#   E(MeV)       xs(mb) 
 5.39083E-01    0.00000E+00
 5.83708E-01    2.49043E+00
 5.94154E-01    3.07341E+00
 6.00000E-01    3.39966E+00
 6.38558E-01    4.39208E+00
 6.47132E-01    4.61276E+00
 6.49263E-01    4.66761E+00
 6.55050E-01    4.81656E+00
 6.57707E-01    4.88495E+00
 6.59361E-01    4.92752E+00
 6.61663E-01    4.98677E+00
 6.64624E-01    5.06298E+00
 6.66580E-01    5.11332E+00
 6.69489E-01    5.18820E+00
 6.74303E-01    5.31210E+00
 6.76174E-01    5.36026E+00
 6.78302E-01    5.41503E+00
 7.00000E-01    5.97350E+00
 8.00000E-01    7.00840E+00
 9.00000E-01    6.76803E+00
 1.00000E+00    5.84509E+00
 1.20000E+00    3.88010E+00
 1.40000E+00    2.42945E+00
 1.60000E+00    1.54019E+00
 1.80000E+00    1.03847E+00
 2.00000E+00    7.37465E-01
 2.20000E+00    5.29501E-01
 2.40000E+00    3.73984E-01
 2.60000E+00    2.57213E-01
 2.80000E+00    1.72465E-01
 3.00000E+00    1.13370E-01
 3.20000E+00    7.35323E-02
 3.40000E+00    4.73566E-02
 3.60000E+00    3.04330E-02
 3.80000E+00    1.95724E-02
 4.00000E+00    1.26320E-02
 4.20000E+00    8.18670E-03
 4.40000E+00    5.33434E-03
 4.60000E+00    3.49537E-03
 4.80000E+00    2.30597E-03
 5.00000E+00    1.52863E-03
 5.20000E+00    1.01857E-03
 5.40000E+00    6.81809E-04
 5.60000E+00    4.60152E-04
 5.80000E+00    3.12980E-04
 6.00000E+00    2.14284E-04
 6.20000E+00    1.47871E-04
 6.40000E+00    1.02619E-04
 6.60000E+00    7.17161E-05
 6.80000E+00    5.04282E-05
 7.00000E+00    3.56577E-05
 7.20000E+00    2.53902E-05
 7.40000E+00    1.81662E-05
 7.60000E+00    1.30764E-05
 7.80000E+00    9.45785E-06
 8.00000E+00    6.87006E-06
 8.50000E+00    3.15305E-06
 9.00000E+00    1.48468E-06
 9.50000E+00    7.16478E-07
 1.00000E+01    3.54195E-07
 1.05000E+01    1.79247E-07
 1.10000E+01    9.27631E-08
 1.15000E+01    4.90648E-08
 1.20000E+01    2.64857E-08
 1.25000E+01    1.45716E-08
 1.30000E+01    8.16134E-09
 1.35000E+01    4.64617E-09
 1.40000E+01    2.68543E-09
 1.45000E+01    1.57425E-09
 1.50000E+01    9.35601E-10
 1.60000E+01    3.43768E-10
 1.70000E+01    1.32281E-10
 1.80000E+01    5.37434E-11
 1.90000E+01    2.28862E-11
 2.00000E+01    1.01732E-11
 2.10000E+01    4.70372E-12
 2.20000E+01    2.24674E-12
 2.30000E+01    1.10718E-12
 2.40000E+01    5.63118E-13
 2.50000E+01    2.94882E-13
 2.60000E+01    1.59405E-13
 2.70000E+01    8.84065E-14
 2.80000E+01    5.02376E-14
 2.90000E+01    2.91898E-14
 3.00000E+01    1.73148E-14
