# n + Ac230 : (n,n'18)  
# tendl.2017 A.J. Koning and D. Rochman        EVAL-NOV17
# uncertainties: n
# # energies =    81
#   E(MeV)       xs(mb) 
 6.38558E-01    0.00000E+00
 6.47132E-01    6.04666E-08
 6.49263E-01    7.54955E-08
 6.55050E-01    1.16307E-07
 6.57707E-01    1.35045E-07
 6.59361E-01    1.46709E-07
 6.61663E-01    1.62944E-07
 6.64624E-01    1.83825E-07
 6.66580E-01    1.97620E-07
 6.69489E-01    2.18135E-07
 6.74303E-01    2.52085E-07
 6.76174E-01    2.65280E-07
 6.78302E-01    2.80287E-07
 7.00000E-01    4.33309E-07
 8.00000E-01    1.44341E-05
 9.00000E-01    8.42715E-05
 1.00000E+00    2.76142E-04
 1.20000E+00    1.32271E-03
 1.40000E+00    3.43203E-03
 1.60000E+00    6.24247E-03
 1.80000E+00    9.20807E-03
 2.00000E+00    1.16123E-02
 2.20000E+00    1.26306E-02
 2.40000E+00    1.21030E-02
 2.60000E+00    1.05725E-02
 2.80000E+00    8.69321E-03
 3.00000E+00    6.86642E-03
 3.20000E+00    5.27597E-03
 3.40000E+00    3.97489E-03
 3.60000E+00    2.94538E-03
 3.80000E+00    2.14772E-03
 4.00000E+00    1.54172E-03
 4.20000E+00    1.09024E-03
 4.40000E+00    7.62317E-04
 4.60000E+00    5.29432E-04
 4.80000E+00    3.67666E-04
 5.00000E+00    2.55925E-04
 5.20000E+00    1.79131E-04
 5.40000E+00    1.26695E-04
 5.60000E+00    9.07480E-05
 5.80000E+00    6.59733E-05
 6.00000E+00    4.86164E-05
 6.20000E+00    3.62819E-05
 6.40000E+00    2.73738E-05
 6.60000E+00    2.08430E-05
 6.80000E+00    1.59725E-05
 7.00000E+00    1.22923E-05
 7.20000E+00    9.50096E-06
 7.40000E+00    7.33706E-06
 7.60000E+00    5.67377E-06
 7.80000E+00    4.38121E-06
 8.00000E+00    3.37520E-06
 8.50000E+00    1.75151E-06
 9.00000E+00    9.05942E-07
 9.50000E+00    4.71240E-07
 1.00000E+01    2.48427E-07
 1.05000E+01    1.33356E-07
 1.10000E+01    7.30204E-08
 1.15000E+01    4.07886E-08
 1.20000E+01    2.31944E-08
 1.25000E+01    1.33942E-08
 1.30000E+01    7.84024E-09
 1.35000E+01    4.64433E-09
 1.40000E+01    2.78259E-09
 1.45000E+01    1.68603E-09
 1.50000E+01    1.03373E-09
 1.60000E+01    4.03250E-10
 1.70000E+01    1.64707E-10
 1.80000E+01    7.10372E-11
 1.90000E+01    3.20387E-11
 2.00000E+01    1.50035E-11
 2.10000E+01    7.25533E-12
 2.20000E+01    3.59783E-12
 2.30000E+01    1.82981E-12
 2.40000E+01    9.56867E-13
 2.50000E+01    5.14181E-13
 2.60000E+01    2.84940E-13
 2.70000E+01    1.61864E-13
 2.80000E+01    9.40945E-14
 2.90000E+01    5.58266E-14
 3.00000E+01    3.37383E-14
