# n + Sn121 : (n,n'09)  
# jeff3.3    A.J. Koning and D. Rochman        EVAL-DEC15
# uncertainties: n
# # energies =    86
#   E(MeV)       xs(mb) 
 1.07590E+00    0.00000E+00
 1.11071E+00    1.97312E-01
 1.13055E+00    3.09771E-01
 1.16564E+00    5.08669E-01
 1.20000E+00    7.03431E-01
 1.21203E+00    8.00150E-01
 1.25740E+00    1.16492E+00
 1.34815E+00    1.89453E+00
 1.36126E+00    1.99993E+00
 1.40000E+00    2.31139E+00
 1.41521E+00    2.46825E+00
 1.44395E+00    2.76463E+00
 1.46210E+00    2.95181E+00
 1.51050E+00    3.45094E+00
 1.54982E+00    3.85643E+00
 1.58411E+00    4.21005E+00
 1.60000E+00    4.37392E+00
 1.66699E+00    5.23483E+00
 1.72427E+00    5.97096E+00
 1.77297E+00    6.59682E+00
 1.80000E+00    6.94419E+00
 1.87955E+00    7.92780E+00
 1.89165E+00    8.07741E+00
 1.90930E+00    8.29565E+00
 1.92593E+00    8.50127E+00
 1.92825E+00    8.52996E+00
 2.00000E+00    9.41712E+00
 2.20000E+00    1.07479E+01
 2.40000E+00    1.12191E+01
 2.60000E+00    1.10863E+01
 2.80000E+00    1.05122E+01
 3.00000E+00    9.70747E+00
 3.20000E+00    8.77078E+00
 3.40000E+00    7.78125E+00
 3.60000E+00    6.79621E+00
 3.80000E+00    5.85399E+00
 4.00000E+00    4.98173E+00
 4.20000E+00    4.19238E+00
 4.40000E+00    3.49377E+00
 4.60000E+00    2.88696E+00
 4.80000E+00    2.36767E+00
 5.00000E+00    1.92935E+00
 5.20000E+00    1.56358E+00
 5.40000E+00    1.26152E+00
 5.60000E+00    1.01534E+00
 5.80000E+00    8.15662E-01
 6.00000E+00    6.55660E-01
 6.20000E+00    5.27750E-01
 6.40000E+00    4.27001E-01
 6.60000E+00    3.46095E-01
 6.80000E+00    2.83970E-01
 7.00000E+00    2.35925E-01
 7.20000E+00    1.98628E-01
 7.40000E+00    1.70181E-01
 7.60000E+00    1.48243E-01
 7.80000E+00    1.31535E-01
 8.00000E+00    1.18881E-01
 8.50000E+00    9.92856E-02
 9.00000E+00    9.01158E-02
 9.50000E+00    8.62763E-02
 1.00000E+01    8.50496E-02
 1.05000E+01    8.49990E-02
 1.10000E+01    8.53763E-02
 1.15000E+01    8.58080E-02
 1.20000E+01    8.61237E-02
 1.25000E+01    8.62612E-02
 1.30000E+01    8.62146E-02
 1.35000E+01    8.60046E-02
 1.40000E+01    8.56601E-02
 1.45000E+01    8.52149E-02
 1.50000E+01    8.47003E-02
 1.60000E+01    8.35666E-02
 1.70000E+01    8.24106E-02
 1.80000E+01    8.13048E-02
 1.90000E+01    8.02646E-02
 2.00000E+01    7.92576E-02
 2.10000E+01    7.82203E-02
 2.20000E+01    7.70830E-02
 2.30000E+01    7.58080E-02
 2.40000E+01    7.44061E-02
 2.50000E+01    7.29267E-02
 2.60000E+01    7.14291E-02
 2.70000E+01    6.99637E-02
 2.80000E+01    6.85572E-02
 2.90000E+01    6.72147E-02
 3.00000E+01    6.59256E-02
