# n + Sn121 : (n,n'13)  
# jeff3.3    A.J. Koning and D. Rochman        EVAL-DEC15
# uncertainties: n
# # energies =    81
#   E(MeV)       xs(mb) 
 1.21203E+00    0.00000E+00
 1.25740E+00    8.06158E-02
 1.34815E+00    2.41865E-01
 1.36126E+00    2.65160E-01
 1.40000E+00    3.33995E-01
 1.41521E+00    3.71938E-01
 1.44395E+00    4.43632E-01
 1.46210E+00    4.88909E-01
 1.51050E+00    6.09646E-01
 1.54982E+00    7.07733E-01
 1.58411E+00    7.93272E-01
 1.60000E+00    8.32911E-01
 1.66699E+00    1.07135E+00
 1.72427E+00    1.27523E+00
 1.77297E+00    1.44857E+00
 1.80000E+00    1.54478E+00
 1.87955E+00    1.87240E+00
 1.89165E+00    1.92223E+00
 1.90930E+00    1.99492E+00
 1.92593E+00    2.06341E+00
 1.92825E+00    2.07297E+00
 2.00000E+00    2.36846E+00
 2.20000E+00    2.98569E+00
 2.40000E+00    3.40672E+00
 2.60000E+00    3.64679E+00
 2.80000E+00    3.71302E+00
 3.00000E+00    3.65101E+00
 3.20000E+00    3.48519E+00
 3.40000E+00    3.24459E+00
 3.60000E+00    2.95625E+00
 3.80000E+00    2.64346E+00
 4.00000E+00    2.32644E+00
 4.20000E+00    2.01908E+00
 4.40000E+00    1.73198E+00
 4.60000E+00    1.47142E+00
 4.80000E+00    1.23991E+00
 5.00000E+00    1.03789E+00
 5.20000E+00    8.64159E-01
 5.40000E+00    7.16429E-01
 5.60000E+00    5.92607E-01
 5.80000E+00    4.90077E-01
 6.00000E+00    4.05880E-01
 6.20000E+00    3.37181E-01
 6.40000E+00    2.82184E-01
 6.60000E+00    2.37271E-01
 6.80000E+00    2.02307E-01
 7.00000E+00    1.75109E-01
 7.20000E+00    1.53826E-01
 7.40000E+00    1.37567E-01
 7.60000E+00    1.25072E-01
 7.80000E+00    1.15607E-01
 8.00000E+00    1.08569E-01
 8.50000E+00    9.81816E-02
 9.00000E+00    9.40995E-02
 9.50000E+00    9.31907E-02
 1.00000E+01    9.37282E-02
 1.05000E+01    9.47824E-02
 1.10000E+01    9.58731E-02
 1.15000E+01    9.67725E-02
 1.20000E+01    9.73937E-02
 1.25000E+01    9.77255E-02
 1.30000E+01    9.77949E-02
 1.35000E+01    9.76456E-02
 1.40000E+01    9.73215E-02
 1.45000E+01    9.68671E-02
 1.50000E+01    9.63215E-02
 1.60000E+01    9.50822E-02
 1.70000E+01    9.37916E-02
 1.80000E+01    9.25459E-02
 1.90000E+01    9.13711E-02
 2.00000E+01    9.02361E-02
 2.10000E+01    8.90715E-02
 2.20000E+01    8.77997E-02
 2.30000E+01    8.63759E-02
 2.40000E+01    8.48079E-02
 2.50000E+01    8.31469E-02
 2.60000E+01    8.14581E-02
 2.70000E+01    7.97992E-02
 2.80000E+01    7.82023E-02
 2.90000E+01    7.66757E-02
 3.00000E+01    7.52091E-02
