# n + Sn121 : (n,n'21)  
# jeff3.3    A.J. Koning and D. Rochman        EVAL-DEC15
# uncertainties: n
# # energies =    72
#   E(MeV)       xs(mb) 
 1.54982E+00    0.00000E+00
 1.58411E+00    9.39935E+00
 1.60000E+00    1.37550E+01
 1.66699E+00    2.21394E+01
 1.72427E+00    2.93084E+01
 1.77297E+00    3.54037E+01
 1.80000E+00    3.87867E+01
 1.87955E+00    4.17672E+01
 1.89165E+00    4.22206E+01
 1.90930E+00    4.28819E+01
 1.92593E+00    4.35050E+01
 1.92825E+00    4.35919E+01
 2.00000E+00    4.62802E+01
 2.20000E+00    4.54976E+01
 2.40000E+00    4.19991E+01
 2.60000E+00    3.76807E+01
 2.80000E+00    3.30646E+01
 3.00000E+00    2.86246E+01
 3.20000E+00    2.44653E+01
 3.40000E+00    2.06791E+01
 3.60000E+00    1.73150E+01
 3.80000E+00    1.43816E+01
 4.00000E+00    1.18673E+01
 4.20000E+00    9.73545E+00
 4.40000E+00    7.94756E+00
 4.60000E+00    6.46048E+00
 4.80000E+00    5.22965E+00
 5.00000E+00    4.21500E+00
 5.20000E+00    3.38093E+00
 5.40000E+00    2.69715E+00
 5.60000E+00    2.13917E+00
 5.80000E+00    1.68577E+00
 6.00000E+00    1.32183E+00
 6.20000E+00    1.03004E+00
 6.40000E+00    7.99396E-01
 6.60000E+00    6.14975E-01
 6.80000E+00    4.73070E-01
 7.00000E+00    3.63596E-01
 7.20000E+00    2.78967E-01
 7.40000E+00    2.14409E-01
 7.60000E+00    1.64688E-01
 7.80000E+00    1.26733E-01
 8.00000E+00    9.77282E-02
 8.50000E+00    5.15111E-02
 9.00000E+00    2.76035E-02
 9.50000E+00    1.50533E-02
 1.00000E+01    8.34484E-03
 1.05000E+01    4.69483E-03
 1.10000E+01    2.67648E-03
 1.15000E+01    1.54402E-03
 1.20000E+01    9.00302E-04
 1.25000E+01    5.30127E-04
 1.30000E+01    3.15122E-04
 1.35000E+01    1.88972E-04
 1.40000E+01    1.14279E-04
 1.45000E+01    6.96775E-05
 1.50000E+01    4.28191E-05
 1.60000E+01    1.65419E-05
 1.70000E+01    6.57382E-06
 1.80000E+01    2.68011E-06
 1.90000E+01    1.11887E-06
 2.00000E+01    4.74580E-07
 2.10000E+01    2.06865E-07
 2.20000E+01    9.18390E-08
 2.30000E+01    4.14852E-08
 2.40000E+01    1.89968E-08
 2.50000E+01    8.81502E-09
 2.60000E+01    4.14334E-09
 2.70000E+01    1.97373E-09
 2.80000E+01    9.52386E-10
 2.90000E+01    4.65786E-10
 3.00000E+01    2.30822E-10
