# n + Sn125 : (n,n'05)  
# jeff3.3    A.J. Koning and D. Rochman        EVAL-DEC15
# uncertainties: n
# # energies =    91
#   E(MeV)       xs(mb) 
 9.37893E-01    0.00000E+00
 9.44052E-01    1.40566E-01
 1.00000E+00    1.41746E+00
 1.06780E+00    2.40188E+00
 1.08066E+00    2.58860E+00
 1.09613E+00    2.81322E+00
 1.19709E+00    4.27911E+00
 1.20000E+00    4.32136E+00
 1.22870E+00    4.58148E+00
 1.26907E+00    4.94738E+00
 1.37352E+00    5.89407E+00
 1.40000E+00    6.13407E+00
 1.55274E+00    7.52532E+00
 1.60000E+00    7.95579E+00
 1.77119E+00    9.64504E+00
 1.80000E+00    9.92933E+00
 1.81756E+00    1.00724E+01
 1.89044E+00    1.06663E+01
 1.89519E+00    1.07050E+01
 1.90808E+00    1.08101E+01
 2.00000E+00    1.15591E+01
 2.07613E+00    1.21858E+01
 2.09276E+00    1.23228E+01
 2.15285E+00    1.28174E+01
 2.19367E+00    1.31535E+01
 2.20000E+00    1.32056E+01
 2.26767E+00    1.35635E+01
 2.30265E+00    1.37485E+01
 2.32674E+00    1.38759E+01
 2.35033E+00    1.40006E+01
 2.36615E+00    1.40843E+01
 2.37402E+00    1.41259E+01
 2.40000E+00    1.42633E+01
 2.48208E+00    1.43793E+01
 2.60000E+00    1.45459E+01
 2.80000E+00    1.34365E+01
 3.00000E+00    1.17010E+01
 3.20000E+00    9.87062E+00
 3.40000E+00    8.17321E+00
 3.60000E+00    6.69293E+00
 3.80000E+00    5.44291E+00
 4.00000E+00    4.40507E+00
 4.20000E+00    3.55149E+00
 4.40000E+00    2.85277E+00
 4.60000E+00    2.28194E+00
 4.80000E+00    1.81908E+00
 5.00000E+00    1.44509E+00
 5.20000E+00    1.14428E+00
 5.40000E+00    9.04642E-01
 5.60000E+00    7.14340E-01
 5.80000E+00    5.64172E-01
 6.00000E+00    4.45318E-01
 6.20000E+00    3.51864E-01
 6.40000E+00    2.77340E-01
 6.60000E+00    2.19305E-01
 6.80000E+00    1.73572E-01
 7.00000E+00    1.38071E-01
 7.20000E+00    1.09833E-01
 7.40000E+00    8.77375E-02
 7.60000E+00    7.02477E-02
 7.80000E+00    5.62815E-02
 8.00000E+00    4.53659E-02
 8.50000E+00    2.66219E-02
 9.00000E+00    1.58214E-02
 9.50000E+00    9.49297E-03
 1.00000E+01    5.73372E-03
 1.05000E+01    3.48024E-03
 1.10000E+01    2.12082E-03
 1.15000E+01    1.29731E-03
 1.20000E+01    7.96536E-04
 1.25000E+01    4.91058E-04
 1.30000E+01    3.04062E-04
 1.35000E+01    1.89147E-04
 1.40000E+01    1.18278E-04
 1.45000E+01    7.43744E-05
 1.50000E+01    4.70454E-05
 1.60000E+01    1.91767E-05
 1.70000E+01    8.00906E-06
 1.80000E+01    3.42170E-06
 1.90000E+01    1.49162E-06
 2.00000E+01    6.57092E-07
 2.10000E+01    2.95548E-07
 2.20000E+01    1.34345E-07
 2.30000E+01    6.17643E-08
 2.40000E+01    2.86996E-08
 2.50000E+01    1.35101E-08
 2.60000E+01    6.43982E-09
 2.70000E+01    3.11049E-09
 2.80000E+01    1.52190E-09
 2.90000E+01    7.53748E-10
 3.00000E+01    3.77537E-10
