# n + Sn125 : (n,n'17)  
# jeff3.3    A.J. Koning and D. Rochman        EVAL-DEC15
# uncertainties: n
# # energies =    74
#   E(MeV)       xs(mb) 
 1.89044E+00    0.00000E+00
 1.89519E+00    5.08498E-03
 1.90808E+00    1.88839E-02
 2.00000E+00    1.17286E-01
 2.07613E+00    2.06862E-01
 2.09276E+00    2.26429E-01
 2.15285E+00    2.97132E-01
 2.19367E+00    3.45161E-01
 2.20000E+00    3.52609E-01
 2.26767E+00    4.60367E-01
 2.30265E+00    5.16069E-01
 2.32674E+00    5.54430E-01
 2.35033E+00    5.91995E-01
 2.36615E+00    6.17187E-01
 2.37402E+00    6.29719E-01
 2.40000E+00    6.71090E-01
 2.48208E+00    8.26841E-01
 2.60000E+00    1.05060E+00
 2.80000E+00    1.36475E+00
 3.00000E+00    1.55474E+00
 3.20000E+00    1.61913E+00
 3.40000E+00    1.58157E+00
 3.60000E+00    1.47525E+00
 3.80000E+00    1.33166E+00
 4.00000E+00    1.17527E+00
 4.20000E+00    1.02171E+00
 4.40000E+00    8.79648E-01
 4.60000E+00    7.52340E-01
 4.80000E+00    6.40646E-01
 5.00000E+00    5.43029E-01
 5.20000E+00    4.57690E-01
 5.40000E+00    3.83202E-01
 5.60000E+00    3.18321E-01
 5.80000E+00    2.62478E-01
 6.00000E+00    2.14484E-01
 6.20000E+00    1.73881E-01
 6.40000E+00    1.39729E-01
 6.60000E+00    1.11851E-01
 6.80000E+00    8.90880E-02
 7.00000E+00    7.10232E-02
 7.20000E+00    5.63896E-02
 7.40000E+00    4.48185E-02
 7.60000E+00    3.56476E-02
 7.80000E+00    2.83207E-02
 8.00000E+00    2.26138E-02
 8.50000E+00    1.29522E-02
 9.00000E+00    7.53242E-03
 9.50000E+00    4.44682E-03
 1.00000E+01    2.65928E-03
 1.05000E+01    1.60715E-03
 1.10000E+01    9.79204E-04
 1.15000E+01    6.00442E-04
 1.20000E+01    3.70119E-04
 1.25000E+01    2.29280E-04
 1.30000E+01    1.42739E-04
 1.35000E+01    8.93010E-05
 1.40000E+01    5.61595E-05
 1.45000E+01    3.55009E-05
 1.50000E+01    2.25609E-05
 1.60000E+01    9.26068E-06
 1.70000E+01    3.88325E-06
 1.80000E+01    1.66184E-06
 1.90000E+01    7.24657E-07
 2.00000E+01    3.19324E-07
 2.10000E+01    1.43866E-07
 2.20000E+01    6.56220E-08
 2.30000E+01    3.03002E-08
 2.40000E+01    1.41350E-08
 2.50000E+01    6.67179E-09
 2.60000E+01    3.18430E-09
 2.70000E+01    1.53849E-09
 2.80000E+01    7.52678E-10
 2.90000E+01    3.72788E-10
 3.00000E+01    1.86804E-10
