# n + Sn115 : (n,t)     
# jeff3.3    N.Iwamoto,K.Shibata               EVAL-Dec09
# uncertainties: n
# # energies =    60
#   E(MeV)       xs(mb) 
 7.61108E+00    0.00000E+00
 8.00622E+00    1.95889E-16
 8.26359E+00    6.29092E-16
 8.64431E+00    1.27170E-15
 8.64975E+00    1.28136E-15
 8.68430E+00    1.34435E-15
 8.72721E+00    1.42378E-15
 8.75246E+00    1.47085E-15
 8.79444E+00    1.54942E-15
 8.81264E+00    1.58351E-15
 8.96778E+00    1.87439E-15
 8.97395E+00    1.88596E-15
 9.00000E+00    1.93480E-15
 9.00396E+00    2.79816E-14
 9.07683E+00    5.07423E-13
 9.09587E+00    6.32704E-13
 9.12059E+00    7.95364E-13
 9.12828E+00    8.45965E-13
 9.13333E+00    8.79196E-13
 9.16048E+00    1.05785E-12
 9.17670E+00    1.16459E-12
 9.19188E+00    1.26448E-12
 9.19440E+00    1.28106E-12
 9.24417E+00    1.60857E-12
 9.25595E+00    1.68609E-12
 9.25942E+00    1.70892E-12
 9.30126E+00    1.98425E-12
 9.30998E+00    2.04163E-12
 9.31551E+00    2.07802E-12
 9.32600E+00    2.14705E-12
 9.33342E+00    2.19588E-12
 9.38451E+00    2.53208E-12
 9.38680E+00    2.54715E-12
 9.39464E+00    2.59874E-12
 9.42920E+00    2.82616E-12
 9.44961E+00    2.96047E-12
 9.46290E+00    3.04793E-12
 9.49278E+00    3.24455E-12
 9.50000E+00    3.29207E-12
 1.00000E+01    5.74344E-10
 1.05000E+01    1.72685E-08
 1.10000E+01    1.84057E-07
 1.15000E+01    1.06203E-06
 1.20000E+01    4.80799E-06
 1.25000E+01    2.32176E-05
 1.30000E+01    1.15439E-04
 1.35000E+01    5.01243E-04
 1.40000E+01    1.78804E-03
 1.45000E+01    5.25738E-03
 1.50000E+01    1.28409E-02
 1.55000E+01    2.73580E-02
 1.60000E+01    5.12699E-02
 1.65000E+01    8.64969E-02
 1.70000E+01    1.34114E-01
 1.75000E+01    1.94336E-01
 1.80000E+01    2.66761E-01
 1.85000E+01    3.50479E-01
 1.90000E+01    4.44382E-01
 1.95000E+01    5.47142E-01
 2.00000E+01    6.57530E-01
