# n + Sn123 : (n,n'08)  
# jeff3.3    A.J. Koning and D. Rochman        EVAL-DEC15
# uncertainties: n
# # energies =    87
#   E(MeV)       xs(mb) 
 1.08090E+00    0.00000E+00
 1.11608E+00    1.61774E-02
 1.11810E+00    1.71063E-02
 1.14563E+00    2.97658E-02
 1.16448E+00    3.84339E-02
 1.20000E+00    5.47676E-02
 1.20420E+00    5.91695E-02
 1.22699E+00    8.30554E-02
 1.31168E+00    1.71818E-01
 1.40000E+00    2.64385E-01
 1.45182E+00    3.57316E-01
 1.47803E+00    4.04320E-01
 1.50102E+00    4.45549E-01
 1.60000E+00    6.23055E-01
 1.72807E+00    9.31592E-01
 1.74319E+00    9.68018E-01
 1.79864E+00    1.10160E+00
 1.80000E+00    1.10488E+00
 1.84401E+00    1.21748E+00
 1.91761E+00    1.40580E+00
 1.94181E+00    1.46772E+00
 1.96096E+00    1.51671E+00
 2.00000E+00    1.61660E+00
 2.01762E+00    1.65893E+00
 2.04263E+00    1.71901E+00
 2.09707E+00    1.84980E+00
 2.13135E+00    1.93216E+00
 2.17067E+00    2.02662E+00
 2.20000E+00    2.09708E+00
 2.40000E+00    2.31173E+00
 2.60000E+00    2.28767E+00
 2.80000E+00    2.14295E+00
 3.00000E+00    1.94302E+00
 3.20000E+00    1.72428E+00
 3.40000E+00    1.50668E+00
 3.60000E+00    1.30087E+00
 3.80000E+00    1.11223E+00
 4.00000E+00    9.41914E-01
 4.20000E+00    7.91061E-01
 4.40000E+00    6.58463E-01
 4.60000E+00    5.43003E-01
 4.80000E+00    4.43588E-01
 5.00000E+00    3.59050E-01
 5.20000E+00    2.88042E-01
 5.40000E+00    2.29217E-01
 5.60000E+00    1.81262E-01
 5.80000E+00    1.42464E-01
 6.00000E+00    1.11461E-01
 6.20000E+00    8.68740E-02
 6.40000E+00    6.73703E-02
 6.60000E+00    5.21537E-02
 6.80000E+00    4.04198E-02
 7.00000E+00    3.13118E-02
 7.20000E+00    2.43324E-02
 7.40000E+00    1.89170E-02
 7.60000E+00    1.47471E-02
 7.80000E+00    1.15267E-02
 8.00000E+00    9.01913E-03
 8.50000E+00    4.95217E-03
 9.00000E+00    2.76048E-03
 9.50000E+00    1.55825E-03
 1.00000E+01    8.88423E-04
 1.05000E+01    5.10535E-04
 1.10000E+01    2.95275E-04
 1.15000E+01    1.71794E-04
 1.20000E+01    1.00539E-04
 1.25000E+01    5.91917E-05
 1.30000E+01    3.50562E-05
 1.35000E+01    2.08877E-05
 1.40000E+01    1.25239E-05
 1.45000E+01    7.55886E-06
 1.50000E+01    4.59415E-06
 1.60000E+01    1.73374E-06
 1.70000E+01    6.73031E-07
 1.80000E+01    2.68310E-07
 1.90000E+01    1.09581E-07
 2.00000E+01    4.54068E-08
 2.10000E+01    1.92911E-08
 2.20000E+01    8.31913E-09
 2.30000E+01    3.63749E-09
 2.40000E+01    1.61260E-09
 2.50000E+01    7.24405E-10
 2.60000E+01    3.29982E-10
 2.70000E+01    1.52505E-10
 2.80000E+01    7.14929E-11
 2.90000E+01    3.39744E-11
 3.00000E+01    1.63562E-11
