# n + Sn123 : (n,n'10)  
# jeff3.3    A.J. Koning and D. Rochman        EVAL-DEC15
# uncertainties: n
# # energies =    85
#   E(MeV)       xs(mb) 
 1.11810E+00    0.00000E+00
 1.14563E+00    2.05237E+00
 1.16448E+00    3.45765E+00
 1.20000E+00    6.10569E+00
 1.20420E+00    6.24187E+00
 1.22699E+00    6.98081E+00
 1.31168E+00    9.72681E+00
 1.40000E+00    1.25905E+01
 1.45182E+00    1.35485E+01
 1.47803E+00    1.40331E+01
 1.50102E+00    1.44581E+01
 1.60000E+00    1.62880E+01
 1.72807E+00    1.84482E+01
 1.74319E+00    1.87032E+01
 1.79864E+00    1.96385E+01
 1.80000E+00    1.96614E+01
 1.84401E+00    2.03161E+01
 1.91761E+00    2.14110E+01
 1.94181E+00    2.17710E+01
 1.96096E+00    2.20558E+01
 2.00000E+00    2.26366E+01
 2.01762E+00    2.28005E+01
 2.04263E+00    2.30332E+01
 2.09707E+00    2.35397E+01
 2.13135E+00    2.38587E+01
 2.17067E+00    2.42245E+01
 2.20000E+00    2.44974E+01
 2.40000E+00    2.32941E+01
 2.60000E+00    2.02291E+01
 2.80000E+00    1.69210E+01
 3.00000E+00    1.39211E+01
 3.20000E+00    1.13781E+01
 3.40000E+00    9.29098E+00
 3.60000E+00    7.60036E+00
 3.80000E+00    6.23547E+00
 4.00000E+00    5.12384E+00
 4.20000E+00    4.21381E+00
 4.40000E+00    3.45862E+00
 4.60000E+00    2.82605E+00
 4.80000E+00    2.29433E+00
 5.00000E+00    1.84844E+00
 5.20000E+00    1.47702E+00
 5.40000E+00    1.17083E+00
 5.60000E+00    9.22977E-01
 5.80000E+00    7.24026E-01
 6.00000E+00    5.66633E-01
 6.20000E+00    4.43445E-01
 6.40000E+00    3.47308E-01
 6.60000E+00    2.73734E-01
 6.80000E+00    2.18094E-01
 7.00000E+00    1.75949E-01
 7.20000E+00    1.44418E-01
 7.40000E+00    1.20636E-01
 7.60000E+00    1.02844E-01
 7.80000E+00    8.95120E-02
 8.00000E+00    7.94730E-02
 8.50000E+00    6.40913E-02
 9.00000E+00    5.65638E-02
 9.50000E+00    5.28498E-02
 1.00000E+01    5.09911E-02
 1.05000E+01    5.00262E-02
 1.10000E+01    4.94787E-02
 1.15000E+01    4.91129E-02
 1.20000E+01    4.88145E-02
 1.25000E+01    4.85311E-02
 1.30000E+01    4.82416E-02
 1.35000E+01    4.79396E-02
 1.40000E+01    4.76258E-02
 1.45000E+01    4.73044E-02
 1.50000E+01    4.69810E-02
 1.60000E+01    4.63526E-02
 1.70000E+01    4.57861E-02
 1.80000E+01    4.53083E-02
 1.90000E+01    4.49182E-02
 2.00000E+01    4.45809E-02
 2.10000E+01    4.42396E-02
 2.20000E+01    4.38379E-02
 2.30000E+01    4.33454E-02
 2.40000E+01    4.27645E-02
 2.50000E+01    4.21219E-02
 2.60000E+01    4.14503E-02
 2.70000E+01    4.07763E-02
 2.80000E+01    4.01124E-02
 2.90000E+01    3.94595E-02
 3.00000E+01    3.88103E-02
