# n + Ac222 : (n,n'16)  
# tendl.2017 A.J. Koning and D. Rochman        EVAL-NOV17
# uncertainties: n
# # energies =    85
#   E(MeV)       xs(mb) 
 4.41067E-01    0.00000E+00
 4.46629E-01    1.73106E-02
 4.51186E-01    3.14935E-02
 4.58406E-01    5.39644E-02
 4.64622E-01    7.33105E-02
 4.76832E-01    1.11312E-01
 4.88035E-01    1.46179E-01
 4.98760E-01    1.79559E-01
 4.99971E-01    1.83328E-01
 5.00000E-01    1.83418E-01
 5.12223E-01    2.53325E-01
 5.15771E-01    2.73616E-01
 5.20899E-01    3.02945E-01
 5.26928E-01    3.37426E-01
 5.29232E-01    3.50604E-01
 5.30531E-01    3.58033E-01
 6.00000E-01    7.55344E-01
 7.00000E-01    1.40965E+00
 8.00000E-01    2.01753E+00
 9.00000E-01    2.55066E+00
 1.00000E+00    3.01547E+00
 1.20000E+00    3.77795E+00
 1.40000E+00    4.25232E+00
 1.60000E+00    4.24679E+00
 1.80000E+00    3.69479E+00
 2.00000E+00    2.83757E+00
 2.20000E+00    1.99554E+00
 2.40000E+00    1.33335E+00
 2.60000E+00    8.70183E-01
 2.80000E+00    5.63844E-01
 3.00000E+00    3.66432E-01
 3.20000E+00    2.40173E-01
 3.40000E+00    1.58924E-01
 3.60000E+00    1.05944E-01
 3.80000E+00    7.09487E-02
 4.00000E+00    4.76075E-02
 4.20000E+00    3.19546E-02
 4.40000E+00    2.14441E-02
 4.60000E+00    1.43994E-02
 4.80000E+00    9.68054E-03
 5.00000E+00    6.54271E-03
 5.20000E+00    4.44440E-03
 5.40000E+00    3.02403E-03
 5.60000E+00    2.08109E-03
 5.80000E+00    1.44455E-03
 6.00000E+00    1.01364E-03
 6.20000E+00    7.18199E-04
 6.40000E+00    5.13472E-04
 6.60000E+00    3.70696E-04
 6.80000E+00    2.69675E-04
 7.00000E+00    1.97969E-04
 7.20000E+00    1.46202E-04
 7.40000E+00    1.08638E-04
 7.60000E+00    8.11648E-05
 7.80000E+00    6.08267E-05
 8.00000E+00    4.58067E-05
 8.50000E+00    2.27511E-05
 9.00000E+00    1.14547E-05
 9.50000E+00    5.84596E-06
 1.00000E+01    3.02901E-06
 1.05000E+01    1.59552E-06
 1.10000E+01    8.55629E-07
 1.15000E+01    4.67064E-07
 1.20000E+01    2.59478E-07
 1.25000E+01    1.46515E-07
 1.30000E+01    8.39615E-08
 1.35000E+01    4.87530E-08
 1.40000E+01    2.86570E-08
 1.45000E+01    1.70370E-08
 1.50000E+01    1.02427E-08
 1.60000E+01    3.82807E-09
 1.70000E+01    1.48861E-09
 1.80000E+01    6.07966E-10
 1.90000E+01    2.58762E-10
 2.00000E+01    1.14787E-10
 2.10000E+01    5.28454E-11
 2.20000E+01    2.51782E-11
 2.30000E+01    1.23883E-11
 2.40000E+01    6.23886E-12
 2.50000E+01    3.22610E-12
 2.60000E+01    1.71313E-12
 2.70000E+01    9.33346E-13
 2.80000E+01    5.20731E-13
 2.90000E+01    2.97340E-13
 3.00000E+01    1.73246E-13
