# n + Sn119 : (n,xa)    
# jeff3.3    N.Iwamoto,K.Shibata               EVAL-Dec09
# 
# # energies =   102
#   E(MeV)        xs(mb) 
 2.40735E-02    1.17081E-08
 3.00000E-02    9.84193E-09
 4.00000E-02    7.79270E-09
 5.00000E-02    6.59704E-09
 6.00000E-02    5.94184E-09
 7.00000E-02    5.50284E-09
 8.00000E-02    5.22415E-09
 9.00000E-02    5.05517E-09
 9.02905E-02    5.05026E-09
 1.00000E-01    4.94727E-09
 1.05000E-01    4.93700E-09
 1.10000E-01    4.92673E-09
 1.20000E-01    4.94455E-09
 1.30000E-01    4.98901E-09
 1.40000E-01    5.06370E-09
 1.50000E-01    5.16097E-09
 1.60000E-01    5.27979E-09
 1.70000E-01    5.41494E-09
 1.80000E-01    5.56628E-09
 1.90000E-01    5.73509E-09
 2.00000E-01    5.91590E-09
 2.25000E-01    6.52823E-09
 2.50000E-01    7.27891E-09
 2.75000E-01    8.14919E-09
 3.00000E-01    9.14980E-09
 4.00000E-01    1.53130E-08
 5.00000E-01    2.63557E-08
 6.00000E-01    4.57274E-08
 7.00000E-01    7.92281E-08
 7.93686E-01    1.31856E-07
 8.00000E-01    1.36020E-07
 9.00000E-01    2.24528E-07
 9.28319E-01    2.59282E-07
 9.29206E-01    2.57549E-07
 1.00000E+00    3.29343E-07
 1.06899E+00    4.38743E-07
 1.07141E+00    4.40769E-07
 1.09868E+00    4.83957E-07
 1.10000E+00    4.84579E-07
 1.19781E+00    6.81589E-07
 1.20000E+00    6.86319E-07
 1.22026E+00    7.34961E-07
 1.26031E+00    8.47091E-07
 1.30000E+00    9.43939E-07
 1.31546E+00    9.94748E-07
 1.31547E+00    9.94781E-07
 1.32041E+00    1.01102E-06
 1.36629E+00    1.18661E-06
 1.39050E+00    1.28302E-06
 1.40000E+00    1.32636E-06
 1.40179E+00    1.33452E-06
 1.50000E+00    1.88768E-06
 1.52281E+00    2.04391E-06
 1.56759E+00    2.35869E-06
 1.57525E+00    2.41183E-06
 1.58513E+00    2.47763E-06
 1.60000E+00    2.56547E-06
 1.60349E+00    2.58805E-06
 1.63082E+00    2.78039E-06
 1.64685E+00    2.90770E-06
 1.70000E+00    3.35107E-06
 1.80000E+00    4.46863E-06
 1.90000E+00    5.96982E-06
 2.00000E+00    8.01331E-06
 2.25000E+00    1.60261E-05
 2.50000E+00    2.92861E-05
 2.75000E+00    5.29316E-05
 3.00000E+00    8.67098E-05
 3.50000E+00    2.14191E-04
 4.00000E+00    4.54002E-04
 4.50000E+00    8.44079E-04
 5.00000E+00    1.40539E-03
 5.50000E+00    2.13943E-03
 6.00000E+00    3.06246E-03
 6.50000E+00    4.23773E-03
 7.00000E+00    5.83186E-03
 7.50000E+00    8.11995E-03
 8.00000E+00    1.15581E-02
 8.50000E+00    1.68602E-02
 9.00000E+00    2.50238E-02
 9.50000E+00    3.70699E-02
 1.00000E+01    5.52177E-02
 1.05000E+01    8.10350E-02
 1.10000E+01    1.16314E-01
 1.15000E+01    1.62523E-01
 1.20000E+01    2.20722E-01
 1.25000E+01    2.92047E-01
 1.30000E+01    3.77144E-01
 1.35000E+01    4.76456E-01
 1.40000E+01    5.89948E-01
 1.45000E+01    7.16665E-01
 1.50000E+01    8.55970E-01
 1.55000E+01    1.00573E+00
 1.60000E+01    1.16524E+00
 1.65000E+01    1.33182E+00
 1.70000E+01    1.50512E+00
 1.75000E+01    1.68254E+00
 1.80000E+01    1.86423E+00
 1.85000E+01    2.04780E+00
 1.90000E+01    2.23440E+00
 1.95000E+01    2.42232E+00
 2.00000E+01    2.61260E+00
